Voltage (V)	Current (A)	Current Density (A/m^2)	 Dividing Wavelength (nm) = 660  Light Power Density (W/m^2) = 1076.543839  Total Light Power Density (W/m^2) = 1076.543839	
-0.199858	-3.881873E-5	-4.852341
-0.193178	-3.832326E-5	-4.790407
-0.186467	-3.855163E-5	-4.818954
-0.179728	-3.822035E-5	-4.777544
-0.173022	-3.750552E-5	-4.688190
-0.166314	-3.761041E-5	-4.701301
-0.159605	-3.729084E-5	-4.661355
-0.152870	-3.730019E-5	-4.662524
-0.146163	-3.678291E-5	-4.597864
-0.139460	-3.646956E-5	-4.558695
-0.132779	-3.656817E-5	-4.571021
-0.126001	-3.598773E-5	-4.498466
-0.119326	-3.599369E-5	-4.499211
-0.112630	-3.582021E-5	-4.477526
-0.105914	-3.557754E-5	-4.447192
-0.099206	-3.531407E-5	-4.414259
-0.092465	-3.531171E-5	-4.413964
-0.085763	-3.486499E-5	-4.358124
-0.079063	-3.509566E-5	-4.386958
-0.072377	-3.448967E-5	-4.311209
-0.065606	-3.427457E-5	-4.284321
-0.058926	-3.423369E-5	-4.279211
-0.052221	-3.379208E-5	-4.224010
-0.045513	-3.371534E-5	-4.214418
-0.038800	-3.348764E-5	-4.185955
-0.032066	-3.310844E-5	-4.138555
-0.025356	-3.283571E-5	-4.104464
-0.018640	-3.282732E-5	-4.103415
-0.011979	-3.262148E-5	-4.077685
-0.005195	-3.207101E-5	-4.008876
0.001446	-3.201245E-5	-4.001556
0.008159	-3.190946E-5	-3.988683
0.014854	-3.189416E-5	-3.986770
0.021599	-3.144741E-5	-3.930926
0.028314	-3.127255E-5	-3.909069
0.034985	-3.101568E-5	-3.876960
0.041693	-3.085956E-5	-3.857445
0.048399	-3.050573E-5	-3.813216
0.055153	-3.062016E-5	-3.827520
0.061860	-3.023976E-5	-3.779970
0.068566	-2.985459E-5	-3.731824
0.075238	-2.983216E-5	-3.729020
0.082010	-2.924492E-5	-3.655615
0.088691	-2.921904E-5	-3.652380
0.095402	-2.946609E-5	-3.683261
0.102107	-2.874212E-5	-3.592765
0.108812	-2.879078E-5	-3.598848
0.115553	-2.840808E-5	-3.551010
0.122264	-2.804268E-5	-3.505335
0.128941	-2.809593E-5	-3.511991
0.135642	-2.753721E-5	-3.442151
0.142387	-2.717904E-5	-3.397380
0.149095	-2.703120E-5	-3.378900
0.155812	-2.673146E-5	-3.341433
0.162516	-2.643940E-5	-3.304925
0.169253	-2.615537E-5	-3.269421
0.175962	-2.590383E-5	-3.237979
0.182674	-2.583716E-5	-3.229645
0.189360	-2.520357E-5	-3.150446
0.196064	-2.504069E-5	-3.130086
0.202802	-2.435262E-5	-3.044078
0.209508	-2.401072E-5	-3.001340
0.216221	-2.387287E-5	-2.984109
0.222929	-2.355536E-5	-2.944420
0.229667	-2.303327E-5	-2.879159
0.236378	-2.268347E-5	-2.835434
0.243051	-2.221972E-5	-2.777465
0.249762	-2.189969E-5	-2.737461
0.256500	-2.156284E-5	-2.695355
0.263206	-2.095078E-5	-2.618848
0.269911	-2.052845E-5	-2.566056
0.276623	-1.983792E-5	-2.479740
0.283297	-1.965667E-5	-2.457084
0.290076	-1.927100E-5	-2.408875
0.296746	-1.842413E-5	-2.303016
0.303454	-1.796024E-5	-2.245030
0.310169	-1.762659E-5	-2.203324
0.316903	-1.674422E-5	-2.093027
0.323608	-1.625592E-5	-2.031990
0.330320	-1.562418E-5	-1.953023
0.337002	-1.476710E-5	-1.845888
0.343710	-1.370917E-5	-1.713646
0.350452	-1.368248E-5	-1.710310
0.357156	-1.269549E-5	-1.586936
0.363863	-1.163500E-5	-1.454375
0.370572	-1.124290E-5	-1.405363
0.377312	-9.931509E-6	-1.241439
0.384016	-8.873874E-6	-1.109234
0.390694	-7.930208E-6	-0.991276
0.397391	-6.385081E-6	-0.798135
0.404138	-5.253012E-6	-0.656627
0.410848	-3.634650E-6	-0.454331
0.417552	-2.302032E-6	-0.287754
0.424253	-7.434990E-7	-0.092937
0.430472	7.677392E-7	0.095967
0.437693	3.259153E-6	0.407394
0.444389	5.449457E-6	0.681182
0.451056	7.805221E-6	0.975653
0.457657	1.015783E-5	1.269729
0.464540	1.290948E-5	1.613685
0.471248	1.610231E-5	2.012789
0.477960	1.982092E-5	2.477615
0.484662	2.398811E-5	2.998514
0.491410	2.814588E-5	3.518235
0.498129	3.311758E-5	4.139698
0.504799	3.817512E-5	4.771890
0.511490	4.449698E-5	5.562123
0.518196	5.106072E-5	6.382590
0.524942	5.943549E-5	7.429436
0.531644	6.833285E-5	8.541606
0.538349	7.776501E-5	9.720626
0.545028	8.928949E-5	11.161186
0.551779	0.000102	12.774888
0.558484	0.000117	14.638213
0.565194	0.000133	16.665650
0.571903	0.000153	19.078050
0.578614	0.000175	21.855538
0.585352	0.000200	24.948975
0.592060	0.000228	28.551238
0.598745	0.000261	32.594025
0.605446	0.000297	37.166025
0.612187	0.000341	42.574113
0.618896	0.000389	48.618313
0.625611	0.000443	55.383225
0.632317	0.000504	63.004013
0.639053	0.000574	71.713088
0.645765	0.000651	81.350500
0.652438	0.000737	92.137225
0.659141	0.000832	103.967500
0.665849	0.000936	117.011788
0.672612	0.001051	131.407250
0.679312	0.001176	146.958250
0.686025	0.001311	163.831750
0.692704	0.001456	181.941000
0.699476	0.001612	201.534375
0.706181	0.001779	222.314500
0.712864	0.001953	244.147250
0.719569	0.002138	267.280125
0.726282	0.002333	291.618000
0.733019	0.002538	317.203000
0.739731	0.002750	343.767625
0.746443	0.002971	371.390375
0.753118	0.003199	399.862250
0.759891	0.003437	429.632375
0.766559	0.003679	459.901625
0.773269	0.003929	491.184000
0.779976	0.004187	523.333500
0.786720	0.004451	556.374875
0.793422	0.004720	589.984375
0.800127	0.004994	624.293750
