Wavelength (nm)	EQE (%)	Current (A)	Dark Current (A) -> 	-323.867560000E-12	
400.000000	18.264316	-4.029549E-7
401.000000	19.950016	-5.918994E-7
402.000000	19.912335	-8.814970E-7
403.000000	19.739540	-1.329024E-6
404.000000	19.609978	-1.772317E-6
405.000000	19.770953	-2.358935E-6
406.000000	19.751802	-3.276266E-6
407.000000	19.596153	-3.541804E-6
408.000000	19.275445	-3.741850E-6
409.000000	19.456331	-4.254754E-6
410.000000	19.405264	-4.274434E-6
411.000000	19.592711	-5.661592E-6
412.000000	19.513561	-6.561256E-6
413.000000	19.887788	-8.743355E-6
414.000000	19.643876	-1.009504E-5
415.000000	19.570837	-1.010337E-5
416.000000	19.560320	-9.756226E-6
417.000000	19.859388	-8.745849E-6
418.000000	19.055893	-5.803764E-6
419.000000	19.038541	-4.183920E-6
420.000000	19.586225	-4.358464E-6
421.000000	19.685724	-4.778957E-6
422.000000	19.645466	-4.342651E-6
423.000000	19.813311	-4.526436E-6
424.000000	19.788632	-5.066325E-6
425.000000	20.335499	-5.546670E-6
426.000000	20.358025	-5.951548E-6
427.000000	20.438339	-6.265656E-6
428.000000	20.608695	-7.028728E-6
429.000000	20.965806	-7.919585E-6
430.000000	21.127700	-8.643719E-6
431.000000	21.360065	-8.890898E-6
432.000000	21.347970	-8.869042E-6
433.000000	21.824253	-9.233006E-6
434.000000	21.980027	-1.028362E-5
435.000000	22.032910	-1.057525E-5
436.000000	22.269771	-1.076496E-5
437.000000	22.705531	-1.191622E-5
438.000000	22.986398	-1.254087E-5
439.000000	23.027027	-1.236916E-5
440.000000	23.539643	-1.245882E-5
441.000000	23.902597	-1.393944E-5
442.000000	24.069501	-1.384150E-5
443.000000	24.728816	-1.361239E-5
444.000000	24.386063	-1.330243E-5
445.000000	24.671115	-1.341018E-5
446.000000	25.204806	-1.324774E-5
447.000000	25.212818	-1.484751E-5
448.000000	25.676116	-1.709078E-5
449.000000	26.053988	-1.622650E-5
450.000000	25.997623	-1.500157E-5
451.000000	26.078683	-1.616614E-5
452.000000	26.638896	-1.753212E-5
453.000000	26.570149	-1.652229E-5
454.000000	26.358780	-1.444623E-5
455.000000	26.984503	-1.519389E-5
456.000000	27.420926	-1.818064E-5
457.000000	26.842152	-2.028250E-5
458.000000	27.467740	-2.067746E-5
459.000000	28.644282	-2.043705E-5
460.000000	28.735046	-1.896547E-5
461.000000	28.319257	-1.771378E-5
462.000000	29.280728	-1.783859E-5
463.000000	28.643290	-1.746585E-5
464.000000	29.229826	-1.758112E-5
465.000000	30.135699	-1.855517E-5
466.000000	30.359319	-1.743637E-5
467.000000	29.876487	-1.408181E-5
468.000000	29.711706	-1.354048E-5
469.000000	31.104898	-1.817462E-5
470.000000	31.203911	-1.956930E-5
471.000000	30.453551	-1.476815E-5
472.000000	31.216872	-1.395793E-5
473.000000	32.345122	-1.955354E-5
474.000000	32.445699	-2.063643E-5
475.000000	32.302575	-1.604511E-5
476.000000	32.402300	-1.485962E-5
477.000000	33.925163	-1.833153E-5
478.000000	33.610215	-1.735125E-5
479.000000	33.603242	-1.678291E-5
480.000000	34.673443	-2.044741E-5
481.000000	34.648542	-2.039684E-5
482.000000	33.502406	-1.454637E-5
483.000000	34.800589	-1.498664E-5
484.000000	34.855953	-1.910611E-5
485.000000	35.104515	-1.653808E-5
486.000000	35.568288	-1.470083E-5
487.000000	35.988757	-1.757994E-5
488.000000	36.685187	-1.820663E-5
489.000000	36.022531	-1.533605E-5
490.000000	36.897827	-1.709251E-5
491.000000	36.571734	-1.893285E-5
492.000000	37.455629	-2.129838E-5
493.000000	37.549086	-2.289862E-5
494.000000	37.398697	-2.103917E-5
495.000000	38.057088	-2.042514E-5
496.000000	39.329082	-2.409026E-5
497.000000	39.183817	-2.567699E-5
498.000000	39.647193	-2.406423E-5
499.000000	39.349180	-2.300876E-5
500.000000	39.755884	-2.588942E-5
501.000000	39.289606	-3.134631E-5
502.000000	39.989369	-2.997395E-5
503.000000	40.052250	-2.799670E-5
504.000000	40.991912	-3.293043E-5
505.000000	42.072129	-3.835971E-5
506.000000	41.968463	-3.563760E-5
507.000000	40.817168	-2.837160E-5
508.000000	40.910118	-2.814976E-5
509.000000	41.588168	-2.876731E-5
510.000000	42.092915	-2.550402E-5
511.000000	41.193854	-2.191951E-5
512.000000	41.413795	-2.483809E-5
513.000000	42.267961	-2.878704E-5
514.000000	42.506904	-3.432298E-5
515.000000	43.068397	-4.098195E-5
516.000000	43.663058	-5.254235E-5
517.000000	43.788672	-6.296694E-5
518.000000	44.334504	-5.595135E-5
519.000000	43.206688	-4.466682E-5
520.000000	43.837399	-4.248401E-5
521.000000	43.389468	-3.291753E-5
522.000000	43.114717	-2.537791E-5
523.000000	42.810971	-2.350341E-5
524.000000	43.754265	-3.087475E-5
525.000000	44.529241	-4.367394E-5
526.000000	44.549030	-4.888066E-5
527.000000	44.874891	-5.288625E-5
528.000000	45.478123	-6.080759E-5
529.000000	45.288227	-5.841481E-5
530.000000	45.247104	-4.425960E-5
531.000000	45.132249	-3.299653E-5
532.000000	44.256049	-2.632110E-5
533.000000	44.749140	-2.751206E-5
534.000000	45.961829	-3.042789E-5
535.000000	45.215355	-3.816809E-5
536.000000	46.805266	-5.546259E-5
537.000000	46.270337	-5.576771E-5
538.000000	46.349833	-4.198345E-5
539.000000	46.788012	-4.179271E-5
540.000000	46.326501	-3.473697E-5
541.000000	45.706647	-2.999520E-5
542.000000	46.139686	-3.142313E-5
543.000000	45.971503	-3.673703E-5
544.000000	47.281849	-5.046973E-5
545.000000	46.879924	-5.471363E-5
546.000000	47.113311	-4.895914E-5
547.000000	46.965169	-4.883691E-5
548.000000	46.813409	-3.978503E-5
549.000000	46.089637	-2.861157E-5
550.000000	46.390483	-2.839001E-5
551.000000	45.829910	-3.111337E-5
552.000000	47.141948	-4.220972E-5
553.000000	47.046887	-5.144197E-5
554.000000	47.084986	-5.328052E-5
555.000000	47.502931	-5.408437E-5
556.000000	47.507945	-4.750197E-5
557.000000	47.144776	-3.739222E-5
558.000000	46.679283	-3.522906E-5
559.000000	46.809751	-3.937450E-5
560.000000	47.222969	-4.726608E-5
561.000000	47.626608	-5.597097E-5
562.000000	46.982067	-5.018073E-5
563.000000	47.076518	-4.935973E-5
564.000000	46.775579	-4.231065E-5
565.000000	46.515517	-3.271260E-5
566.000000	46.612200	-3.232427E-5
567.000000	46.736624	-3.464229E-5
568.000000	46.602119	-4.149833E-5
569.000000	46.898043	-4.795978E-5
570.000000	46.829015	-4.557554E-5
571.000000	46.805795	-4.254516E-5
572.000000	46.469553	-3.877772E-5
573.000000	46.093618	-3.134274E-5
574.000000	47.062419	-3.199818E-5
575.000000	47.091251	-3.724753E-5
576.000000	47.597650	-4.784881E-5
577.000000	47.936142	-5.363910E-5
578.000000	47.945553	-5.662002E-5
579.000000	47.402482	-5.245512E-5
580.000000	47.583852	-4.385000E-5
581.000000	47.793267	-3.926540E-5
582.000000	47.976204	-3.715368E-5
583.000000	48.420015	-4.155391E-5
584.000000	48.842040	-4.992844E-5
585.000000	48.536933	-5.290773E-5
586.000000	49.127507	-5.113833E-5
587.000000	48.778722	-4.817368E-5
588.000000	48.413656	-4.060319E-5
589.000000	48.400277	-3.875152E-5
590.000000	47.827267	-3.929880E-5
591.000000	48.188616	-5.821759E-5
592.000000	48.217850	-5.865849E-5
593.000000	47.944166	-5.846077E-5
594.000000	47.892132	-5.580760E-5
595.000000	48.202985	-5.465811E-5
596.000000	48.559450	-5.556560E-5
597.000000	48.980368	-5.757640E-5
598.000000	48.525872	-6.171611E-5
599.000000	48.385732	-6.592146E-5
600.000000	48.348240	-6.880216E-5
601.000000	48.004710	-7.072208E-5
602.000000	47.777459	-6.949951E-5
603.000000	47.264264	-6.758924E-5
604.000000	46.886113	-6.292755E-5
605.000000	46.831381	-5.982750E-5
606.000000	46.804624	-6.028459E-5
607.000000	46.884428	-6.159072E-5
608.000000	47.051091	-6.716648E-5
609.000000	47.139809	-7.302414E-5
610.000000	47.203446	-7.616557E-5
611.000000	47.192014	-7.842388E-5
612.000000	46.532045	-7.643363E-5
613.000000	46.018713	-7.238406E-5
614.000000	45.795627	-6.662394E-5
615.000000	45.476048	-6.231390E-5
616.000000	45.798634	-6.340203E-5
617.000000	45.594225	-6.677691E-5
618.000000	45.795702	-7.319881E-5
619.000000	45.642043	-7.807033E-5
620.000000	45.264936	-7.973682E-5
621.000000	44.940787	-8.116131E-5
622.000000	44.792091	-8.198575E-5
623.000000	44.596352	-8.323342E-5
624.000000	44.852677	-8.599260E-5
625.000000	44.043524	-8.912061E-5
626.000000	43.963375	-8.383667E-5
627.000000	41.993491	-8.224345E-5
628.000000	42.462767	-8.155235E-5
629.000000	42.791475	-8.222873E-5
630.000000	42.535772	-8.311969E-5
631.000000	42.731415	-8.716958E-5
632.000000	42.667674	-9.128621E-5
633.000000	42.845048	-9.417633E-5
634.000000	42.977470	-9.683987E-5
635.000000	42.853438	-9.615209E-5
636.000000	42.923046	-9.506991E-5
637.000000	43.035780	-9.512031E-5
638.000000	43.165819	-9.512672E-5
639.000000	43.341634	-9.666010E-5
640.000000	43.573602	-9.544802E-5
641.000000	43.499500	-9.357044E-5
642.000000	44.327598	-9.506824E-5
643.000000	44.485992	-9.565101E-5
644.000000	44.688396	-0.000101
645.000000	45.007772	-0.000106
646.000000	45.172412	-0.000110
647.000000	45.523958	-0.000111
648.000000	45.566044	-0.000106
649.000000	45.727746	-0.000103
650.000000	45.882172	-0.000101
651.000000	46.205693	-0.000103
652.000000	46.671069	-0.000110
653.000000	46.911699	-0.000114
654.000000	47.058806	-0.000118
655.000000	47.007145	-0.000114
656.000000	46.932365	-0.000109
657.000000	47.182743	-0.000107
658.000000	47.595830	-0.000106
659.000000	47.776798	-0.000113
660.000000	48.233043	-0.000123
661.000000	48.423427	-0.000128
662.000000	48.268437	-0.000130
663.000000	48.255458	-0.000123
664.000000	47.982435	-0.000111
665.000000	48.599128	-0.000106
666.000000	49.099676	-0.000110
667.000000	49.149148	-0.000119
668.000000	49.212942	-0.000129
669.000000	49.483697	-0.000135
670.000000	49.348867	-0.000131
671.000000	49.215799	-0.000121
672.000000	49.458765	-0.000118
673.000000	49.431094	-0.000115
674.000000	49.636035	-0.000117
675.000000	50.040459	-0.000128
676.000000	49.795364	-0.000133
677.000000	49.878621	-0.000132
678.000000	49.734059	-0.000131
679.000000	49.748546	-0.000122
680.000000	49.826221	-0.000116
681.000000	49.952086	-0.000122
682.000000	50.265213	-0.000131
683.000000	50.226291	-0.000135
684.000000	50.226516	-0.000138
685.000000	49.924574	-0.000135
686.000000	49.817682	-0.000121
687.000000	50.175966	-0.000119
688.000000	50.253485	-0.000128
689.000000	50.189020	-0.000132
690.000000	50.173868	-0.000139
691.000000	50.298476	-0.000142
692.000000	50.402886	-0.000134
693.000000	50.158146	-0.000126
694.000000	50.393328	-0.000120
695.000000	50.762842	-0.000120
696.000000	50.773406	-0.000127
697.000000	51.052076	-0.000137
698.000000	51.082057	-0.000142
699.000000	51.367347	-0.000138
700.000000	51.447367	-0.000133
701.000000	51.242862	-0.000129
702.000000	51.183581	-0.000123
703.000000	51.797247	-0.000129
704.000000	51.815151	-0.000141
705.000000	51.706750	-0.000143
706.000000	51.774851	-0.000137
707.000000	51.865968	-0.000137
708.000000	51.639376	-0.000134
709.000000	51.563736	-0.000121
710.000000	51.843917	-0.000123
711.000000	52.204558	-0.000145
712.000000	52.176477	-0.000155
713.000000	51.606795	-0.000144
714.000000	51.658136	-0.000133
715.000000	51.513522	-0.000124
716.000000	51.475736	-0.000125
717.000000	51.535936	-0.000128
718.000000	51.582955	-0.000136
719.000000	51.570756	-0.000143
720.000000	51.528482	-0.000142
721.000000	51.570642	-0.000141
722.000000	51.575270	-0.000134
723.000000	51.355056	-0.000126
724.000000	51.446070	-0.000128
725.000000	51.458546	-0.000134
726.000000	52.054637	-0.000140
727.000000	52.127815	-0.000145
728.000000	51.876548	-0.000142
729.000000	51.380030	-0.000134
730.000000	51.623006	-0.000129
731.000000	50.945975	-0.000126
732.000000	51.434557	-0.000128
733.000000	51.395290	-0.000134
734.000000	51.560997	-0.000141
735.000000	51.428757	-0.000139
736.000000	51.659330	-0.000136
737.000000	51.690466	-0.000133
738.000000	51.461656	-0.000127
739.000000	51.761915	-0.000128
740.000000	51.923387	-0.000130
741.000000	51.808904	-0.000133
742.000000	51.893683	-0.000136
743.000000	51.712117	-0.000133
744.000000	51.486195	-0.000126
745.000000	51.402860	-0.000123
746.000000	51.604057	-0.000120
747.000000	51.532302	-0.000121
748.000000	51.578765	-0.000125
749.000000	51.504510	-0.000125
750.000000	51.507057	-0.000125
751.000000	51.417345	-0.000122
752.000000	51.232794	-0.000116
753.000000	51.264144	-0.000113
754.000000	51.192914	-0.000111
755.000000	51.243643	-0.000112
756.000000	51.313917	-0.000114
757.000000	51.209985	-0.000114
758.000000	51.230492	-0.000112
759.000000	51.186586	-0.000110
760.000000	51.062825	-0.000106
761.000000	50.922546	-0.000102
762.000000	51.014256	-0.000101
763.000000	50.978019	-0.000103
764.000000	50.981745	-0.000104
765.000000	50.896346	-0.000104
766.000000	50.860075	-0.000102
767.000000	50.558525	-9.890928E-5
768.000000	50.803674	-9.634536E-5
769.000000	50.734044	-9.437668E-5
770.000000	50.731152	-9.472819E-5
771.000000	50.729874	-9.594735E-5
772.000000	50.715827	-9.719221E-5
773.000000	50.649819	-9.624788E-5
774.000000	50.471925	-9.336252E-5
775.000000	50.444471	-8.953815E-5
776.000000	50.455815	-8.667710E-5
777.000000	50.370472	-8.696620E-5
778.000000	50.410141	-8.940020E-5
779.000000	50.371044	-9.164844E-5
780.000000	50.273668	-9.207841E-5
781.000000	50.106803	-8.963719E-5
782.000000	50.152733	-8.631132E-5
783.000000	50.069619	-8.332534E-5
784.000000	50.184775	-8.287920E-5
785.000000	50.018638	-8.496060E-5
786.000000	49.919106	-8.635088E-5
787.000000	49.832999	-8.683736E-5
788.000000	49.686201	-8.566517E-5
789.000000	49.855505	-8.244484E-5
790.000000	49.824108	-7.963653E-5
791.000000	49.721686	-7.841081E-5
792.000000	49.855591	-7.985482E-5
793.000000	49.598030	-8.218473E-5
794.000000	49.725714	-8.555604E-5
795.000000	49.458360	-8.648347E-5
796.000000	49.316062	-8.281413E-5
797.000000	49.414396	-7.999389E-5
798.000000	49.332884	-7.920856E-5
799.000000	49.313924	-8.015973E-5
800.000000	49.285494	-8.341123E-5
801.000000	49.044319	-8.695104E-5
802.000000	48.929408	-8.786716E-5
803.000000	48.912343	-8.544758E-5
804.000000	48.783904	-8.095234E-5
805.000000	48.826342	-7.794538E-5
806.000000	48.934193	-7.736663E-5
807.000000	48.847140	-7.958739E-5
808.000000	48.729300	-8.389118E-5
809.000000	48.677293	-8.529178E-5
810.000000	48.782075	-8.329224E-5
811.000000	48.502485	-8.009263E-5
812.000000	48.699874	-7.590280E-5
813.000000	48.738597	-7.374149E-5
814.000000	48.648623	-7.571864E-5
815.000000	48.379456	-7.811609E-5
816.000000	48.614160	-8.241126E-5
817.000000	48.533426	-8.246175E-5
818.000000	48.068545	-7.690244E-5
819.000000	48.176368	-7.293961E-5
820.000000	48.325794	-7.112111E-5
821.000000	48.197105	-7.163243E-5
822.000000	48.028321	-7.498440E-5
823.000000	47.882869	-7.872799E-5
824.000000	47.744560	-7.984939E-5
825.000000	47.824197	-7.799683E-5
826.000000	47.781116	-7.395921E-5
827.000000	47.557261	-7.196278E-5
828.000000	47.564284	-7.265691E-5
829.000000	47.504491	-7.420055E-5
830.000000	47.354601	-7.659241E-5
831.000000	46.952011	-7.804252E-5
832.000000	46.764705	-7.693744E-5
833.000000	46.980990	-7.441650E-5
834.000000	46.933063	-7.094626E-5
835.000000	46.863502	-6.846843E-5
836.000000	46.709364	-6.926878E-5
837.000000	46.558110	-7.158102E-5
838.000000	46.384442	-7.289875E-5
839.000000	46.198307	-7.310572E-5
840.000000	46.122457	-7.193853E-5
841.000000	46.080782	-6.900775E-5
842.000000	46.056910	-6.705001E-5
843.000000	45.898612	-6.774139E-5
844.000000	45.663475	-6.917879E-5
845.000000	45.346080	-6.995234E-5
846.000000	45.393014	-7.036347E-5
847.000000	45.146972	-6.901789E-5
848.000000	45.198463	-6.616443E-5
849.000000	44.858573	-6.301453E-5
850.000000	44.765166	-6.292857E-5
851.000000	44.621366	-6.371553E-5
852.000000	44.343167	-6.391826E-5
853.000000	44.367819	-6.467404E-5
854.000000	44.123883	-6.342889E-5
855.000000	43.845354	-6.077427E-5
856.000000	43.806662	-5.875240E-5
857.000000	43.481335	-5.723678E-5
858.000000	43.184883	-5.717553E-5
859.000000	43.110069	-5.778014E-5
860.000000	42.902362	-5.697142E-5
861.000000	42.471436	-5.476175E-5
862.000000	42.236386	-5.217597E-5
863.000000	41.959370	-4.949978E-5
864.000000	41.635660	-4.820760E-5
865.000000	41.515148	-4.798707E-5
866.000000	41.047766	-4.675199E-5
867.000000	40.708756	-4.633165E-5
868.000000	40.340100	-4.492082E-5
869.000000	40.147932	-4.255064E-5
870.000000	39.796553	-4.108777E-5
871.000000	39.262199	-3.966612E-5
872.000000	38.738905	-3.863402E-5
873.000000	38.299045	-3.835907E-5
874.000000	37.833183	-3.746069E-5
875.000000	37.452696	-3.610602E-5
876.000000	36.888682	-3.455822E-5
877.000000	36.231417	-3.288465E-5
878.000000	35.698431	-3.192570E-5
879.000000	35.103871	-3.100073E-5
880.000000	34.376509	-3.006392E-5
881.000000	33.739065	-2.938105E-5
882.000000	33.158324	-2.831718E-5
883.000000	32.396531	-2.724730E-5
884.000000	31.849173	-2.646710E-5
885.000000	31.071667	-2.511171E-5
886.000000	30.400370	-2.407019E-5
887.000000	29.584219	-2.353695E-5
888.000000	28.906436	-2.298237E-5
889.000000	28.092679	-2.214836E-5
890.000000	27.458950	-2.144063E-5
891.000000	26.702657	-2.051831E-5
892.000000	25.948207	-1.961134E-5
893.000000	25.109234	-1.892898E-5
894.000000	24.332669	-1.858522E-5
895.000000	23.497194	-1.797454E-5
896.000000	22.763416	-1.716736E-5
897.000000	22.005168	-1.660507E-5
898.000000	21.256447	-1.594304E-5
899.000000	20.508118	-1.531708E-5
900.000000	19.797370	-1.476705E-5
901.000000	19.067823	-1.413245E-5
902.000000	18.316677	-1.366901E-5
903.000000	17.708500	-1.310930E-5
904.000000	16.949879	-1.248953E-5
905.000000	16.277942	-1.213919E-5
906.000000	15.739045	-1.162188E-5
907.000000	15.125880	-1.116332E-5
908.000000	14.468461	-1.067828E-5
909.000000	13.870943	-1.016464E-5
910.000000	13.346173	-9.833080E-6
911.000000	12.763085	-9.392650E-6
912.000000	12.219881	-9.016084E-6
913.000000	11.750213	-8.742191E-6
914.000000	11.221419	-8.302454E-6
915.000000	10.703369	-7.908106E-6
916.000000	10.261580	-7.524569E-6
917.000000	9.802399	-7.095024E-6
918.000000	9.379938	-6.892738E-6
919.000000	8.966876	-6.586720E-6
920.000000	8.559446	-6.190891E-6
921.000000	8.192947	-5.965961E-6
922.000000	7.824280	-5.659629E-6
923.000000	7.464611	-5.334815E-6
924.000000	7.138063	-5.128255E-6
925.000000	6.806988	-4.835907E-6
926.000000	6.474970	-4.646927E-6
927.000000	6.177628	-4.442695E-6
928.000000	5.882687	-4.197835E-6
929.000000	5.620941	-4.014620E-6
930.000000	5.330645	-3.722533E-6
931.000000	5.089116	-3.491112E-6
932.000000	4.850272	-3.323742E-6
933.000000	4.608904	-3.118460E-6
934.000000	4.380001	-2.971403E-6
935.000000	4.179082	-2.819530E-6
936.000000	3.952106	-2.634337E-6
937.000000	3.766736	-2.522594E-6
938.000000	3.580074	-2.369088E-6
939.000000	3.395169	-2.223177E-6
940.000000	3.227434	-2.136105E-6
941.000000	3.068036	-2.018127E-6
942.000000	2.904044	-1.917253E-6
943.000000	2.756005	-1.810695E-6
944.000000	2.615080	-1.673006E-6
945.000000	2.479765	-1.570802E-6
946.000000	2.353184	-1.469388E-6
947.000000	2.221931	-1.367936E-6
948.000000	2.112543	-1.310918E-6
949.000000	1.994213	-1.232249E-6
950.000000	1.891918	-1.160616E-6
951.000000	1.793688	-1.095728E-6
952.000000	1.691000	-1.016702E-6
953.000000	1.599910	-9.624712E-7
954.000000	1.518413	-9.148097E-7
955.000000	1.433324	-8.533489E-7
956.000000	1.352510	-8.117877E-7
957.000000	1.279181	-7.597437E-7
958.000000	1.209300	-7.054057E-7
959.000000	1.143350	-6.591466E-7
960.000000	1.075833	-6.049630E-7
961.000000	1.017389	-5.677131E-7
962.000000	0.961228	-5.351155E-7
963.000000	0.906909	-5.012721E-7
964.000000	0.857497	-4.782203E-7
965.000000	0.810700	-4.464931E-7
966.000000	0.764395	-4.156236E-7
967.000000	0.721737	-3.924017E-7
968.000000	0.679754	-3.657009E-7
969.000000	0.640479	-3.445701E-7
970.000000	0.606332	-3.248812E-7
971.000000	0.572004	-3.008454E-7
972.000000	0.540022	-2.806781E-7
973.000000	0.511134	-2.605254E-7
974.000000	0.482321	-2.400717E-7
975.000000	0.454588	-2.239588E-7
976.000000	0.428822	-2.087617E-7
977.000000	0.406282	-1.973636E-7
978.000000	0.383763	-1.871695E-7
979.000000	0.360407	-1.750632E-7
980.000000	0.340445	-1.648540E-7
981.000000	0.321354	-1.543662E-7
982.000000	0.303425	-1.449249E-7
983.000000	0.287772	-1.379386E-7
984.000000	0.272350	-1.299982E-7
985.000000	0.257059	-1.214893E-7
986.000000	0.243442	-1.136318E-7
987.000000	0.230415	-1.051839E-7
988.000000	0.216752	-9.740623E-8
989.000000	0.205805	-9.149033E-8
990.000000	0.194866	-8.548331E-8
991.000000	0.184476	-8.114573E-8
992.000000	0.174946	-7.751056E-8
993.000000	0.165607	-7.391115E-8
994.000000	0.156937	-7.087905E-8
995.000000	0.148517	-6.739106E-8
996.000000	0.141564	-6.428262E-8
997.000000	0.133522	-6.084523E-8
998.000000	0.126277	-5.739734E-8
999.000000	0.120174	-5.478218E-8
1000.000000	0.113823	-5.163519E-8
1001.000000	0.108534	-4.880133E-8
1002.000000	0.103173	-4.628664E-8
1003.000000	0.097864	-4.344772E-8
1004.000000	0.093527	-4.102428E-8
1005.000000	0.089107	-3.904939E-8
1006.000000	0.085126	-3.746546E-8
1007.000000	0.080922	-3.604795E-8
1008.000000	0.077025	-3.464279E-8
1009.000000	0.073206	-3.294024E-8
1010.000000	0.069678	-3.142346E-8
1011.000000	0.066428	-2.996255E-8
1012.000000	0.063629	-2.871199E-8
1013.000000	0.060903	-2.782891E-8
1014.000000	0.057931	-2.669421E-8
1015.000000	0.055240	-2.542593E-8
1016.000000	0.052961	-2.447630E-8
1017.000000	0.050637	-2.366161E-8
1018.000000	0.048422	-2.323458E-8
1019.000000	0.046443	-2.295277E-8
1020.000000	0.044230	-2.282377E-8
1021.000000	0.042260	-2.235835E-8
1022.000000	0.040427	-2.153647E-8
1023.000000	0.038371	-2.067829E-8
1024.000000	0.036639	-2.024842E-8
1025.000000	0.035137	-2.010116E-8
1026.000000	0.033869	-2.018162E-8
1027.000000	0.032590	-2.035069E-8
1028.000000	0.031247	-2.060087E-8
1029.000000	0.029962	-2.073923E-8
1030.000000	0.028740	-2.069974E-8
1031.000000	0.027530	-2.032911E-8
1032.000000	0.026366	-1.974847E-8
1033.000000	0.025404	-1.891955E-8
1034.000000	0.024501	-1.765480E-8
1035.000000	0.023619	-1.619983E-8
1036.000000	0.022849	-1.460648E-8
1037.000000	0.021851	-1.314850E-8
1038.000000	0.020867	-1.204562E-8
1039.000000	0.020227	-1.127664E-8
1040.000000	0.019434	-1.063104E-8
1041.000000	0.018682	-1.012685E-8
1042.000000	0.017991	-9.685801E-9
1043.000000	0.017340	-9.269756E-9
1044.000000	0.016699	-8.929256E-9
1045.000000	0.016071	-8.665704E-9
1046.000000	0.015520	-8.502144E-9
1047.000000	0.014931	-8.418739E-9
1048.000000	0.014390	-8.393307E-9
1049.000000	0.013847	-8.332971E-9
1050.000000	0.013303	-8.236630E-9
1051.000000	0.012775	-8.058928E-9
1052.000000	0.012298	-7.971302E-9
1053.000000	0.011794	-7.979765E-9
1054.000000	0.011326	-7.927236E-9
1055.000000	0.010908	-7.945975E-9
1056.000000	0.010462	-8.092470E-9
1057.000000	0.010084	-8.226126E-9
1058.000000	0.009690	-8.382203E-9
1059.000000	0.009296	-8.787549E-9
1060.000000	0.009009	-9.636693E-9
1061.000000	0.008668	-1.093581E-8
1062.000000	0.008369	-1.310907E-8
1063.000000	0.007807	-2.034253E-8
1064.000000	0.007801	-3.521582E-8
1065.000000	0.007353	-3.900286E-8
1066.000000	0.006849	-2.467932E-8
1067.000000	0.006351	-1.378968E-8
1068.000000	0.006187	-9.877228E-9
1069.000000	0.006120	-7.432843E-9
1070.000000	0.005905	-5.917943E-9
1071.000000	0.005844	-5.039441E-9
1072.000000	0.005755	-4.485563E-9
1073.000000	0.005734	-4.043230E-9
1074.000000	0.005509	-3.666751E-9
1075.000000	0.005273	-3.344369E-9
1076.000000	0.005073	-3.100084E-9
1077.000000	0.004889	-2.925110E-9
1078.000000	0.004690	-2.744657E-9
1079.000000	0.004531	-2.594931E-9
1080.000000	0.004388	-2.457570E-9
1081.000000	0.004287	-2.321230E-9
1082.000000	0.004159	-2.190268E-9
1083.000000	0.004038	-2.090777E-9
1084.000000	0.003917	-1.987676E-9
1085.000000	0.003796	-1.909609E-9
1086.000000	0.003633	-1.820295E-9
1087.000000	0.003507	-1.730922E-9
1088.000000	0.003391	-1.654725E-9
1089.000000	0.003289	-1.601515E-9
1090.000000	0.003173	-1.531178E-9
1091.000000	0.003079	-1.471880E-9
1092.000000	0.002994	-1.413935E-9
1093.000000	0.002901	-1.355876E-9
1094.000000	0.002778	-1.287643E-9
1095.000000	0.002689	-1.226022E-9
1096.000000	0.002639	-1.189760E-9
1097.000000	0.002547	-1.155045E-9
1098.000000	0.002458	-1.113192E-9
1099.000000	0.002392	-1.107608E-9
1100.000000	0.002343	-1.113016E-9
